function printarray(A, fpath)
    open(fpath, "w") do file
        println(file, string(eltype(A))*"[")
        for ii = 1:size(A, 1)
            println(file, join(A[ii, :], " ")*";")
        end
        println(file, "]")
    end
end

function data_glass(material::Symbol)
    if material == :SiO2
        Float64[
            2000.0 0.99993 1.503e-5;
            1952.0 0.99992 1.64e-5;
            1905.0 0.99992 1.78e-5;
            1860.0 0.99991 1.936e-5;
            1815.0 0.99991 6.3e-6;
            1772.0 0.99991 6.9e-6;
            1730.0 0.9999 7.56e-6;
            1688.0 0.9999 8.3e-6;
            1648.0 0.99989 9.08e-6;
            1609.0 0.99989 9.941e-6;
            1570.0 0.99988 1.09e-5;
            1533.0 0.99987 1.19e-5;
            1496.0 0.99987 1.31e-5;
            1460.0 0.99986 1.43e-5;
            1426.0 0.99985 1.56e-5;
            1392.0 0.99985 1.71e-5;
            1358.0 0.99984 1.87e-5;
            1326.0 0.99983 2.04e-5;
            1294.0 0.99982 2.24e-5;
            1263.0 0.99981 2.45e-5;
            1233.0 0.99981 2.67e-5;
            1204.0 0.9998 2.92e-5;
            1175.0 0.99979 3.19e-5;
            1147.0 0.99978 3.48e-5;
            1119.0 0.99976 3.81e-5;
            1093.0 0.99975 4.16e-5;
            1067.0 0.99974 4.54e-5;
            1041.0 0.99973 4.97e-5;
            1016.0 0.99971 5.42e-5;
            992.0 0.9997 5.92e-5;
            968.0 0.99968 6.47e-5;
            945.0 0.99967 7.06e-5;
            923.0 0.99965 7.69e-5;
            901.0 0.99964 8.36e-5;
            879.0 0.99962 9.12e-5;
            858.0 0.9996 9.928e-5;
            838.0 0.99958 0.000108;
            818.0 0.99956 0.000118;
            798.0 0.99954 0.000129;
            779.0 0.99951 0.000141;
            760.0 0.99949 0.000154;
            742.0 0.99946 0.000167;
            725.0 0.99944 0.000181;
            707.0 0.99941 0.000198;
            690.0 0.99938 0.000215;
            674.0 0.99935 0.000233;
            658.0 0.99932 0.000254;
            642.0 0.99928 0.000277;
            627.0 0.99925 0.000301;
            612.0 0.99921 0.000327;
            597.0 0.99917 0.000356;
            583.0 0.99913 0.000386;
            569.0 0.99909 0.00042;
            555.0 0.99904 0.000458;
            542.0 0.99899 0.000497;
            529.0 0.99894 0.000149;
            516.0 0.99889 0.000162;
            504.0 0.99884 0.000176;
            492.0 0.99878 0.000191;
            480.0 0.99872 0.000208;
            469.0 0.99866 0.000226;
            458.0 0.99859 0.000245;
            447.0 0.99852 0.000267;
            436.0 0.99845 0.00029;
            426.0 0.99837 0.000315;
            415.0 0.99828 0.000344;
            406.0 0.99821 0.000371;
            396.0 0.99812 0.000404;
            386.0 0.99802 0.00044;
            377.0 0.99792 0.000477;
            368.0 0.99782 0.000518;
            359.0 0.99771 0.000563;
            351.0 0.9976 0.000607;
            342.0 0.99747 0.000662;
            334.0 0.99735 0.000717;
            326.0 0.99722 0.000777;
            318.0 0.99708 0.000844;
            311.0 0.99695 0.000909;
            303.0 0.99678 0.000991;
            296.0 0.99663 0.00107;
            289.0 0.99646 0.00116;
            282.0 0.99629 0.00125;
            275.0 0.99609 0.00136;
            269.0 0.99592 0.00146;
            262.0 0.9957 0.00159;
            256.0 0.99549 0.00171;
            250.0 0.99527 0.00185;
            244.0 0.99504 0.002;
            238.0 0.99478 0.00216;
            232.0 0.99451 0.00234;
            227.0 0.99427 0.0025;
            221.0 0.99395 0.00272;
            216.0 0.99367 0.00292;
            211.0 0.99336 0.00314;
            206.0 0.99304 0.00337;
            201.0 0.99269 0.00363;
            196.0 0.99231 0.0039;
            191.0 0.9919 0.00421;
            187.0 0.99155 0.00447;
            182.0 0.99108 0.00482;
            178.0 0.99068 0.00511;
            174.0 0.99024 0.00544;
            170.0 0.9898 0.0058;
            166.0 0.9893 0.00619;
            162.0 0.9887 0.00662;
            158.0 0.9882 0.00699;
            154.0 0.9875 0.0073;
            151.2 0.9871 0.0073;
            147.6 0.9865 0.0076;
            144.2 0.986 0.0081;
            140.9 0.9855 0.0089;
            137.8 0.9853 0.0099;
            134.8 0.9854 0.0107;
            131.9 0.9858 0.0114;
            129.2 0.9868 0.0111;
            126.5 0.9872 0.0111;
            124.0 0.9874 0.0097;
            121.6 0.9865 0.0085;
            119.2 0.9851 0.0083;
            117.0 0.9841 0.0096;
            114.8 0.9848 0.0099;
            112.7 0.9844 0.009;
            110.7 0.9822 0.0093;
            108.8 0.9828 0.0159;
            106.9 0.9867 0.0106;
            105.1 0.9858 0.0075;
            103.3 0.9839 0.0065;
            101.6 0.9823 0.0068;
            99.99 0.9813 0.007;
            98.4 0.9803 0.0073;
            96.86 0.9794 0.0076;
            95.37 0.9789 0.0076;
            93.93 0.9778 0.0083;
            92.53 0.977 0.0087;
            91.17 0.9761 0.0093;
            89.84 0.9747 0.0103;
            82.66 0.9634 0.0199;
            77.49 0.9608 0.0226;
            72.93 0.9562 0.0244;
            68.88 0.9509 0.0281;
            65.26 0.9458 0.0335;
            61.99 0.9416 0.0374;
            59.04 0.9386 0.0437;
            56.36 0.9328 0.0462;
            53.91 0.9271 0.052;
            51.66 0.9222 0.0578;
            49.59 0.9164 0.065;
            47.69 0.9105 0.0726;
            45.92 0.9207 0.068;
            44.28 0.9175 0.075;
            42.75 0.9137 0.082;
            41.33 0.913 0.09;
            40.0 0.907 0.092;
            38.75 0.901 0.094;
            37.57 0.895 0.098;
            36.47 0.888 0.107;
            35.42 0.882 0.113;
            34.44 0.877 0.12;
            33.51 0.87 0.128;
            32.63 0.866 0.137;
            31.79 0.858 0.144;
            31.0 0.851 0.156;
            30.24 0.845 0.169;
            29.52 0.839 0.18;
            28.83 0.833 0.19;
            28.18 0.827 0.202;
            27.55 0.822 0.218;
            26.95 0.817 0.233;
            26.38 0.813 0.25;
            25.83 0.808 0.27;
            25.3 0.804 0.282;
            25.0 0.733 0.325;
            24.8 0.803 0.3;
            24.31 0.804 0.322;
            24.0 0.753 0.375;
            23.84 0.806 0.343;
            23.39 0.811 0.366;
            23.0 0.774 0.434;
            22.96 0.817 0.385;
            22.54 0.822 0.408;
            22.14 0.829 0.43;
            22.0 0.797 0.48;
            21.75 0.833 0.45;
            21.38 0.843 0.47;
            21.01 0.851 0.482;
            21.0 0.827 0.53;
            20.66 0.862 0.497;
            20.0 0.859 0.585;
            19.5 0.879 0.613;
            19.0 0.902 0.645;
            18.5 0.927 0.677;
            18.0 0.957 0.712;
            17.75 0.975 0.731;
            17.5 0.999 0.75;
            17.25 1.03 0.763;
            17.0 1.072 0.768;
            16.75 1.124 0.765;
            16.5 1.137 0.755;
            16.25 1.156 0.737;
            16.0 1.172 0.717;
            15.75 1.178 0.703;
            15.5 1.172 0.696;
            15.25 1.167 0.699;
            15.0 1.168 0.711;
            14.75 1.175 0.739;
            14.5 1.195 0.771;
            14.25 1.225 0.799;
            14.0 1.265 0.808;
            13.75 1.32 0.795;
            13.5 1.363 0.775;
            13.25 1.371 0.755;
            13.0 1.368 0.747;
            12.75 1.372 0.766;
            12.5 1.383 0.793;
            12.25 1.41 0.824;
            12.0 1.475 0.861;
            11.8 1.554 0.874;
            11.6 1.635 0.859;
            11.4 1.716 0.81;
            11.2 1.766 0.718;
            11.0 1.739 0.569;
            10.9 1.687 0.565;
            10.8 1.587 0.618;
            10.7 1.513 0.725;
            10.6 1.492 0.914;
            10.5 1.567 1.11;
            10.45 1.645 1.136;
            10.4 1.772 1.13;
            10.35 1.919 1.045;
            10.3 2.048 0.925;
            10.25 2.152 0.81;
            10.2 2.24 0.715;
            10.1 2.332 0.46;
            10.0 2.33 0.323;
            9.9 2.292 0.236;
            9.8 2.243 0.168;
            9.7 2.19 0.119;
            9.6 2.14 0.077;
            9.5 2.092 0.0561;
            9.4 2.047 0.043;
            9.3 2.006 0.0339;
            9.2 1.969 0.0271;
            9.1 1.935 0.0228;
            9.0 1.904 0.0189;
            8.9 1.876 0.0156;
            8.8 1.85 0.0132;
            8.7 1.825 0.0109;
            8.6 1.803 0.00838;
            8.5 1.783 0.00557;
            8.4 1.764 0.00317;
            8.3 1.747 0.0014;
            8.2 1.73 0.000463;
            8.1 1.716 0.000122;
            8.0 1.702 3.2e-5;
            7.8 1.676 4.7e-6;
            7.6 1.653 0.0;
            7.4 1.633 0.0;
            7.2 1.616 0.0;
            7.0 1.6 0.0;
            6.75 1.582 0.0;
            6.5 1.567 0.0;
            6.25 1.554 0.0;
            6.0 1.543 0.0;
            5.7976 1.53429 0.0;
            5.7819 1.53371 0.0;
            5.468 1.52276 0.0;
            5.3858 1.52009 0.0;
            5.2131 1.51474 0.0;
            5.1674 1.51338 0.0;
            4.9939 1.50841 0.0;
            4.6751 1.50004 0.0;
            4.594 1.49805 0.0;
            4.504 1.49592 0.0;
            4.4226 1.49404 0.0;
            4.2848 1.49099 0.0;
            4.1784 1.48873 0.0;
            4.1034 1.48719 0.0;
            3.7542 1.48053 0.0;
            3.7105 1.47976 0.0;
            3.6427 1.47858 0.0;
            3.577 1.47746 0.0;
            3.434 1.47512 0.0;
            3.3967 1.47453 0.0;
            3.064 1.46961 0.0;
            2.8448 1.46669 0.0;
            2.6503 1.46429 0.0;
            2.5504 1.46313 0.0;
            2.4379 1.46187 0.0;
            2.2705 1.46008 0.0;
            2.1489 1.45885 0.0;
            2.1411 1.45877 0.0;
            2.1102 1.45847 0.0;
            2.1041 1.45841 0.0;
            1.9257 1.45671 0.0;
            1.8892 1.45637 0.0;
            1.8566 1.45608 0.0;
            1.7549 1.45515 0.0;
            1.455 1.45248 0.0;
            1.3863 1.45185 0.0;
            1.2228 1.45025 0.0;
            1.1449 1.44941 0.0;
            1.0985 1.44888 0.0;
            0.91018 1.44621 0.0;
            0.88874 1.44584 0.0;
            0.84372 1.44497 0.0;
            0.81061 1.44427 0.0;
            0.74663 1.44267 0.0;
            0.7376 1.44241 0.0;
            0.73225 1.44226 0.0;
            0.72543 1.44205 0.0;
            0.68384 1.44069 0.0;
            0.62934 1.43851 0.0;
            0.60243 1.43722 0.0;
            0.57598 1.43576 0.0;
            0.53317 1.43292 0.0;
            0.50868 1.43095 0.0;
            0.38221 1.41314 0.0;
            0.37953 1.41253 0.0;
            0.37542 1.41155 0.0;
            0.3623 1.40819 0.0;
            0.35354 1.40568 0.0;
            0.34863 1.40418 0.0;
            0.33449 1.39936 0.0;
            0.3224 1.395 0.0;
            0.2976 1.383 0.0;
            0.2728 1.365 0.0;
            0.248 1.342 0.0;
            0.2232 1.306 0.0;
            0.2108 1.278 0.0;
            0.1984 1.239 0.0;
            0.1922 1.212 0.0;
            0.186 1.175 0.0;
            0.1835 1.158 0.0;
            0.181 1.135 0.0;
            0.1785 1.107 0.0;
            0.1761 1.084 0.0;
            0.1736 1.053 0.0;
            0.1711 1.014 0.0;
            0.1686 0.9702 0.0;
            0.1674 0.9488 0.0;
            0.1661 0.9175 0.0;
            0.1649 0.8897 0.0;
            0.1637 0.86 0.0;
            0.1624 0.8213 0.0;
            0.1612 0.7719 0.0;
            0.1599 0.7037 0.0;
            0.1587 0.6232 0.0;
            0.1575 0.5456 0.0;
            0.1562 0.4677 0.0;
            0.155 0.4113 0.0;
            0.1537 0.3931 0.0;
            0.1525 0.402 0.0;
            0.1513 0.4329 0.0;
            0.15 0.453 0.0;
            0.1488 0.46 0.0;
            0.1475 0.473 0.0;
            0.1463 0.4746 0.0;
            0.1451 0.4656 0.0;
            0.1438 0.4563 0.0;
            0.1426 0.4309 0.0;
            0.1413 0.3915 0.0;
            0.1401 0.3563 0.0;
            0.1389 0.3705 0.0;
            0.1376 0.5846 0.0;
            0.1364 1.043 0.0;
            0.1351 1.616 0.0;
            0.1333 2.25 0.0;
            0.1302 2.76 0.0;
            0.1271 2.839 0.0;
            0.124 2.694 0.0;
            0.1209 2.448 0.0;
            0.1178 2.224 0.0;
            0.1147 2.038 0.0;
            0.1116 1.869 0.0;
            0.1091 1.784 0.0;
            0.1066 1.69 0.0;
            0.1054 1.652 0.0;
            0.1041 1.619 0.0;
            0.1029 1.615 0.0;
            0.1017 1.658 0.0;
            0.1004 1.701 0.0;
            0.09919 1.753 0.0;
            0.09795 1.789 0.0;
            0.09671 1.811 0.0;
            0.09547 1.81 0.0;
            0.09423 1.779 0.0;
            0.09299 1.756 0.0;
            0.08989 1.698 0.0;
            0.08679 1.643 0.0;
            0.08369 1.598 0.0;
            0.08059 1.555 0.0;
            0.07749 1.502 0.0;
            0.07439 1.45 0.0;
            0.07191 1.401 0.0;
            0.06943 1.337 0.0;
            0.06695 1.235 0.0;
            0.06534 1.161 0.0;
            0.06447 1.05 0.0;
            0.06323 0.8857 0.0;
            0.06199 0.6616 0.0;
            ]
    else
        error("No lookup table for glass $material")
    end
end


"Lookup tables for complex refractive indices of metals."
function data_metal(material::Symbol)
    # Below: 0.127: W. S. M. Werner, K. Glantschnig, C. Ambrosch-Draxl.
    # Optical constants and inelastic electron-scattering data for 17 elemental metals,
    # J. Phys Chem Ref. Data 38, 1013-1092 (2009)
    # Above 0.206: S. Babar and J. H. Weaver.
    # Optical constants of Cu, Ag, and Au revisited, Appl. Opt. 54, 477-481 (2015)
    # Below 0.206: K. Stahrenberg, Th. Herrmann, K. Wilmers, N. Esser, W. Richter, and M. J. G. Lee.
    # Optical properties of copper and silver in the energy range 2.5-9.0 eV,
    # Phys Rev. B 64, 115111 (2001) (Numerical data kindly provided by Prof. Dr. Norbert Esser)
    # above 12.4: H.-J. Hagemann, W. Gudat, and C. Kunz.
    # Optical constants from the far infrared to the x-ray region: Mg, Al, Cu, Ag, Au, Bi, C, and Al2O3,
    # J. Opt. Soc. Am. 65, 742-744 (1975)
    dat = (Ag = Float64[
        0.00236 0.99667 0.00774;
        0.00316 0.99770 0.00530;
        0.00447 0.99198 0.00237;
        0.00676 0.9813 0.00291;
        0.01140 0.9172 0.00818;
        0.01355 0.860 0.0423;
        0.01714 0.863 0.293;
        0.02430 0.928 0.310;
        0.02563 0.927 0.346;
        0.03038 0.895 0.302;
        0.03270 0.894 0.304;
        0.03568 0.872 0.351;
        0.03793 0.896 0.427;
        0.04059 0.953 0.451;
        0.04478 0.889 0.425;
        0.04607 0.848 0.446;
        0.04895 0.833 0.507;
        0.05391 1.04 0.746;
        0.05843 1.09 0.658;
        0.06163 1.06 0.564;
        0.06714 1.03 0.586;
        0.07185 0.982 0.596;
        0.07359 1.13 0.751;
        0.07437 1.17 0.721;
        0.08345 1.28 0.750;
        0.08780 1.37 0.688;
        0.09198 1.32 0.657;
        0.09321 1.27 0.625;
        0.09888 1.32 0.586;
        0.10258 1.23 0.571;
        0.10482 1.27 0.577;
        0.10667 1.30 0.565;
        0.10857 1.30 0.550;
        0.11350 1.33 0.518;
        0.12007 1.27 0.490;
        0.12157 1.21 0.515;
        0.12782 1.10047 0.72025;
        0.12808 1.10131 0.72092;
        0.12835 1.10177 0.72135;
        0.12861 1.10169 0.72134;
        0.12888 1.10100 0.72080;
        0.12915 1.09967 0.71975;
        0.12942 1.09762 0.71822;
        0.12969 1.09481 0.71619;
        0.12996 1.09145 0.71374;
        0.13024 1.08796 0.71109;
        0.13051 1.08474 0.70849;
        0.13078 1.08194 0.70609;
        0.13106 1.07956 0.70392;
        0.13134 1.07761 0.70203;
        0.13162 1.07600 0.70043;
        0.13190 1.07450 0.69911;
        0.13218 1.07305 0.69803;
        0.13246 1.07165 0.69717;
        0.13275 1.07019 0.69646;
        0.13303 1.06863 0.69586;
        0.13332 1.06700 0.69539;
        0.13360 1.06519 0.69501;
        0.13389 1.06311 0.69468;
        0.13418 1.06069 0.69431;
        0.13447 1.05788 0.69384;
        0.13477 1.05470 0.69326;
        0.13506 1.05129 0.69264;
        0.13535 1.04786 0.69208;
        0.13565 1.04452 0.69169;
        0.13595 1.04136 0.69159;
        0.13625 1.03835 0.69186;
        0.13655 1.03546 0.69254;
        0.13685 1.03258 0.69357;
        0.13715 1.02959 0.69486;
        0.13745 1.02649 0.69631;
        0.13776 1.02333 0.69786;
        0.13807 1.02008 0.69935;
        0.13838 1.01667 0.70070;
        0.13868 1.01312 0.70195;
        0.13900 1.00959 0.70326;
        0.13931 1.00630 0.70479;
        0.13962 1.00327 0.70659;
        0.13994 1.00043 0.70860;
        0.14025 0.99765 0.71068;
        0.14057 0.99478 0.71266;
        0.14089 0.99170 0.71446;
        0.14121 0.98833 0.71602;
        0.14153 0.98477 0.71742;
        0.14186 0.98106 0.71871;
        0.14218 0.97724 0.71992;
        0.14251 0.97339 0.72109;
        0.14284 0.96943 0.72222;
        0.14317 0.96532 0.72333;
        0.14350 0.96113 0.72452;
        0.14383 0.95706 0.72591;
        0.14417 0.95333 0.72764;
        0.14450 0.95000 0.72972;
        0.14484 0.94698 0.73206;
        0.14518 0.94414 0.73458;
        0.14552 0.94137 0.73720;
        0.14586 0.93855 0.73982;
        0.14621 0.93563 0.74239;
        0.14655 0.93257 0.74486;
        0.14690 0.92931 0.74718;
        0.14725 0.92578 0.74931;
        0.14760 0.92200 0.75125;
        0.14795 0.91810 0.75314;
        0.14831 0.91416 0.75509;
        0.14866 0.91017 0.75713;
        0.14902 0.90608 0.75929;
        0.14938 0.90197 0.76166;
        0.14974 0.89796 0.76437;
        0.15010 0.89411 0.76744;
        0.15047 0.89043 0.77090;
        0.15083 0.88696 0.77474;
        0.15120 0.88370 0.77897;
        0.15157 0.88061 0.78354;
        0.15194 0.87762 0.78837;
        0.15231 0.87469 0.79342;
        0.15269 0.87180 0.79864;
        0.15307 0.86889 0.80393;
        0.15345 0.86587 0.80921;
        0.15383 0.86267 0.81443;
        0.15421 0.85933 0.81961;
        0.15459 0.85590 0.82477;
        0.15498 0.85246 0.82997;
        0.15537 0.84911 0.83528;
        0.15576 0.84597 0.84077;
        0.15615 0.84313 0.84652;
        0.15655 0.84073 0.85258;
        0.15694 0.83879 0.85897;
        0.15734 0.83725 0.86563;
        0.15774 0.83597 0.87247;
        0.15814 0.83480 0.87934;
        0.15855 0.83363 0.88619;
        0.15895 0.83246 0.89296;
        0.15936 0.83130 0.89969;
        0.15977 0.83023 0.90640;
        0.16019 0.82930 0.91312;
        0.16060 0.82853 0.91987;
        0.16102 0.82797 0.92667;
        0.16144 0.82762 0.93353;
        0.16186 0.82750 0.94043;
        0.16228 0.82762 0.94737;
        0.16271 0.82798 0.95434;
        0.16314 0.82857 0.96136;
        0.16357 0.82933 0.96839;
        0.16400 0.83021 0.97545;
        0.16444 0.83118 0.98251;
        0.16487 0.83223 0.98958;
        0.16531 0.83088 0.99959;
        0.16575 0.83127 1.01158;
        0.16620 0.82727 1.02560;
        0.16665 0.82808 1.03261;
        0.16709 0.82886 1.03820;
        0.16755 0.82962 1.04289;
        0.16800 0.83035 1.04727;
        0.16846 0.83108 1.05195;
        0.16892 0.83186 1.05693;
        0.16938 0.83273 1.06215;
        0.16984 0.83368 1.06808;
        0.17031 0.83476 1.07462;
        0.17078 0.83595 1.08125;
        0.17125 0.83723 1.08787;
        0.17172 0.83860 1.09421;
        0.17220 0.84003 1.10000;
        0.17268 0.84149 1.10533;
        0.17316 0.84298 1.11071;
        0.17365 0.84453 1.11637;
        0.17413 0.84615 1.12232;
        0.17463 0.84786 1.12868;
        0.17512 0.84966 1.13554;
        0.17561 0.85155 1.14216;
        0.17611 0.85353 1.14846;
        0.17662 0.85559 1.15476;
        0.17712 0.85774 1.16112;
        0.17763 0.85997 1.16755;
        0.17814 0.86228 1.17387;
        0.17865 0.86465 1.18014;
        0.17917 0.86708 1.18656;
        0.17969 0.86952 1.19291;
        0.18021 0.87199 1.19907;
        0.18073 0.87449 1.20500;
